File: Verification/WUI/USDA_FPL_Longleaf_Pine_Needle_TGA_Data.csv
s,C,g/g,1/s,s,C,g/g,1/s,s,C,g/g,1/s,s,C,g/g,1/s,s,C,g/g,1/s,s,C,g/g,1/s,s,C,g/g,1/s,s,C,g/g,1/s
A-Time,A-Temperature,A-Mass,A-Mdot,B-Time,B-Temperature,B-Mass,B-Mdot,C-Time,C-Temperature,C-Mass,C-Mdot,D-Time,D-Temperature,D-Mass,D-Mdot,E-Time,E-Temperature,E-Mass,E-Mdot,F-Time,F-Temperature,F-Mass,F-Mdot,G-Time,G-Temperature,G-Mass,G-Mdot,H-Time,H-Temperature,H-Mass,H-Mdot
0.0,27.8,1.0000,0.000333,0.0,22.1,1.0000,0.000034,0.0,20.0,1.0000,0.000218,0.0,22.2,1.0000,0.000246,0.0,21.7,1.0000,0.000358,0.0,17.9,1.0000,0.000105,0.0,47.0,1.0000,0.000576,0.0,18.2,1.0000,0.000216
98.7,98.6,0.9368,0.000481,98.7,98.4,0.9645,0.000437,120.3,95.6,0.8683,0.001972,120.3,97.1,0.8531,0.002238,257.9,104.7,0.9131,0.000018,27.3,36.5,0.9961,0.000249,48.9,57.4,0.9673,0.000946,30.9,37.6,0.9915,0.000436
197.5,104.5,0.9244,0.000033,197.5,104.2,0.9535,0.000020,240.7,98.9,0.6605,0.001487,240.7,100.0,0.6108,0.001779,515.7,111.6,0.9108,0.000007,54.7,62.9,0.9848,0.000585,97.9,93.6,0.8885,0.002153,61.9,64.0,0.9683,0.001072
296.2,104.3,0.9225,0.000011,296.2,104.5,0.9527,0.000002,361.0,101.0,0.5107,0.000933,361.0,102.1,0.4331,0.001021,773.6,126.9,0.9089,0.000007,82.0,89.6,0.9661,0.000665,146.8,98.1,0.7823,0.002102,92.8,71.8,0.9300,0.001319
394.9,105.6,0.9217,0.000006,394.9,105.6,0.9528,-0.000004,481.3,103.7,0.4511,0.000124,481.3,104.9,0.3823,0.000046,1031.4,142.1,0.9064,0.000012,109.3,100.9,0.9533,0.000277,195.7,98.9,0.6844,0.001900,123.7,73.3,0.8888,0.001333
493.7,120.7,0.9208,0.000014,493.7,120.7,0.9528,0.000003,601.7,104.5,0.4451,0.000020,601.7,105.4,0.3797,0.000010,1289.3,156.9,0.9025,0.000019,136.7,103.4,0.9487,0.000106,244.7,99.6,0.5960,0.001705,154.7,73.8,0.8481,0.001298
592.4,137.1,0.9192,0.000019,592.4,137.0,0.9522,0.000007,722.0,104.6,0.4436,0.000008,722.0,105.3,0.3790,0.000004,1547.1,171.8,0.8962,0.000032,164.0,104.1,0.9465,0.000057,293.6,100.2,0.5176,0.001511,185.6,73.8,0.8086,0.001256
691.2,153.6,0.9168,0.000032,691.2,153.4,0.9512,0.000014,842.4,104.7,0.4428,0.000005,842.4,105.5,0.3786,0.000003,1805.0,187.0,0.8860,0.000049,191.4,104.4,0.9453,0.000035,342.6,100.9,0.4516,0.001130,216.6,74.0,0.7704,0.001198
789.9,169.7,0.9126,0.000053,789.9,169.8,0.9496,0.000017,962.7,104.6,0.4424,0.000003,962.7,105.5,0.3783,0.000002,2062.8,201.8,0.8709,0.000072,218.7,104.5,0.9445,0.000024,391.5,102.4,0.4094,0.000589,247.5,79.2,0.7332,0.001322
888.6,186.3,0.9058,0.000088,888.6,186.4,0.9462,0.000066,1083.0,104.8,0.4420,0.000002,1083.0,105.3,0.3781,0.000001,2320.7,216.8,0.8484,0.000101,246.0,104.7,0.9439,0.000018,440.4,103.7,0.3931,0.000133,278.4,102.2,0.6806,0.002093
987.4,202.6,0.8946,0.000139,987.4,202.5,0.9362,0.000133,1203.4,104.7,0.4418,0.000002,1203.4,105.5,0.3780,0.000001,2578.6,231.6,0.8207,0.000111,273.4,104.6,0.9435,0.000015,489.4,104.5,0.3898,0.000035,309.4,110.6,0.6123,0.002172
1086.1,218.8,0.8773,0.000221,1086.1,219.2,0.9185,0.000239,1323.7,109.6,0.4416,0.000002,1323.7,110.5,0.3779,0.000001,2836.4,246.5,0.7921,0.000112,300.7,104.7,0.9431,0.000012,538.3,104.5,0.3885,0.000017,340.3,112.5,0.5488,0.001940
1184.8,235.3,0.8506,0.000310,1184.8,235.6,0.8887,0.000354,1444.0,129.2,0.4412,0.000005,1444.0,130.0,0.3776,0.000004,3094.3,261.2,0.7619,0.000125,328.0,104.7,0.9428,0.000010,587.2,104.6,0.3879,0.000010,371.2,113.7,0.4933,0.001621
1283.6,251.5,0.8181,0.000341,1283.6,252.3,0.8505,0.000414,1564.4,149.1,0.4402,0.000012,1564.4,150.1,0.3767,0.000011,3352.1,276.2,0.7273,0.000143,355.4,104.8,0.9426,0.000009,636.2,104.7,0.3875,0.000007,402.2,113.5,0.4525,0.000909
1382.3,268.0,0.7837,0.000362,1382.3,268.9,0.8067,0.000480,1684.7,169.0,0.4382,0.000023,1684.7,170.0,0.3747,0.000023,3610.0,291.0,0.6871,0.000170,382.7,105.7,0.9425,-0.000008,685.1,104.6,0.3872,0.000005,433.1,106.5,0.4373,0.000201
1481.0,284.3,0.7457,0.000408,1481.0,285.7,0.7534,0.000615,1805.0,189.0,0.4343,0.000041,1805.0,190.0,0.3711,0.000037,3867.8,305.7,0.6390,0.000204,410.0,122.6,0.9425,0.000018,734.0,104.5,0.3870,0.000004,464.0,104.6,0.4337,0.000069
1579.8,300.3,0.7026,0.000471,1579.8,302.6,0.6815,0.000857,1925.4,209.0,0.4283,0.000056,1925.4,210.0,0.3659,0.000049,4125.7,320.8,0.5801,0.000258,437.4,148.1,0.9413,0.000071,783.0,104.7,0.3868,0.000003,495.0,104.5,0.4322,0.000036
1678.5,316.8,0.6514,0.000573,1678.5,319.7,0.5868,0.001020,2045.7,229.1,0.4206,0.000078,2045.7,230.3,0.3585,0.000081,4383.6,335.9,0.5059,0.000313,464.7,174.9,0.9381,0.000180,831.9,104.7,0.3867,0.000002,525.9,104.3,0.4314,0.000017
1777.2,333.5,0.5886,0.000714,1777.2,338.9,0.4860,0.001141,2166.0,248.9,0.4082,0.000129,2166.0,250.3,0.3449,0.000145,4641.4,350.9,0.4268,0.000264,492.0,202.3,0.9307,0.000380,880.8,104.8,0.3866,0.000002,556.8,119.7,0.4308,0.000029
1876.0,350.2,0.5086,0.000909,1876.0,353.1,0.4091,0.000483,2286.4,269.0,0.3909,0.000157,2286.4,270.4,0.3258,0.000168,4899.3,366.1,0.3826,0.000098,519.4,229.9,0.9151,0.000834,929.8,104.6,0.3865,0.000002,587.8,148.4,0.4296,0.000047
1974.7,366.9,0.4178,0.000790,1974.7,369.0,0.3709,0.000329,2406.7,288.8,0.3699,0.000193,2406.7,290.5,0.3040,0.000201,5157.1,381.0,0.3623,0.000071,546.7,257.2,0.8805,0.001748,978.7,104.7,0.3864,0.000002,618.7,179.0,0.4277,0.000088
2073.5,383.0,0.3693,0.000268,2073.5,385.3,0.3385,0.000343,2527.1,308.5,0.3450,0.000221,2527.1,310.6,0.2762,0.000268,5415.0,396.0,0.3448,0.000067,574.1,285.0,0.8214,0.002504,1027.7,104.7,0.3863,0.000002,649.7,210.1,0.4234,0.000197
2172.2,399.5,0.3480,0.000193,2172.2,402.2,0.3013,0.000421,2647.4,329.0,0.3172,0.000237,2647.4,331.4,0.2375,0.000366,5672.8,410.9,0.3280,0.000062,601.4,312.3,0.7472,0.002858,1076.6,104.7,0.3863,0.000002,680.6,241.3,0.4148,0.000401
2270.9,415.9,0.3293,0.000187,2270.9,419.1,0.2535,0.000545,2767.7,349.1,0.2876,0.000276,2767.7,352.4,0.1937,0.000324,5930.7,425.9,0.3134,0.000052,628.7,340.3,0.6646,0.003252,1125.5,104.7,0.3862,0.000001,711.5,273.0,0.3936,0.001006
2369.7,432.4,0.3117,0.000165,2369.7,435.9,0.1973,0.000605,2888.1,369.4,0.2445,0.000410,2888.1,371.9,0.1683,0.000133,6188.5,441.0,0.3011,0.000044,656.1,367.9,0.5624,0.004516,1174.5,104.7,0.3861,0.000001,742.5,305.0,0.3559,0.001392
2468.4,448.8,0.2970,0.000134,2468.4,456.0,0.1172,0.001508,3008.4,389.3,0.2104,0.000160,3008.4,391.8,0.1535,0.000122,6446.4,456.0,0.2906,0.000038,683.4,395.6,0.4278,0.004290,1223.4,104.6,0.3861,0.000001,773.4,338.1,0.3030,0.002223
2567.1,465.3,0.2851,0.000110,2567.1,467.4,0.0645,0.000244,3128.7,409.4,0.1944,0.000121,3128.7,412.1,0.1374,0.000150,6704.3,471.1,0.2818,0.000031,710.7,423.2,0.3579,0.001329,1272.3,104.6,0.3860,-0.000002,804.3,372.8,0.2205,0.002466
2665.9,482.0,0.2752,0.000090,2665.9,483.0,0.0500,0.000072,3249.1,429.6,0.1805,0.000108,3249.1,432.8,0.1161,0.000208,6962.1,486.4,0.2745,0.000027,738.1,451.0,0.3276,0.001053,1321.3,133.3,0.3860,0.000008,835.3,408.6,0.1740,0.000917
2764.6,498.5,0.2672,0.000074,2764.6,499.4,0.0463,0.000015,3369.4,449.6,0.1690,0.000083,3369.4,453.6,0.0874,0.000277,7220.0,501.9,0.2678,0.000024,765.4,478.9,0.3011,0.000814,1370.2,181.6,0.3841,0.000092,866.2,440.0,0.1450,0.001115
2863.3,515.2,0.2602,0.000069,2863.3,515.9,0.0456,0.000004,3489.7,469.8,0.1602,0.000064,3489.7,474.2,0.0313,0.000222,7477.8,517.4,0.2627,0.000018,792.7,506.9,0.2828,0.000559,1419.1,231.0,0.3756,0.000272,897.1,474.7,0.1034,0.001417
2962.1,531.8,0.2543,0.000050,2962.1,532.2,0.0453,0.000003,3610.1,490.1,0.1534,0.000050,3610.1,492.3,0.0162,0.000054,7735.7,533.0,0.2585,0.000015,820.1,534.8,0.2696,0.000426,1468.1,280.5,0.3459,0.000999,928.1,505.6,0.0625,0.001261
3060.8,548.7,0.2499,0.000041,3060.8,548.4,0.0451,0.000003,3730.4,510.4,0.1478,0.000046,3730.4,511.9,0.0132,0.000012,7993.5,548.4,0.2548,0.000013,847.4,563.6,0.2592,0.000319,1517.0,331.0,0.2863,0.001576,959.0,534.2,0.0278,0.000803
3159.6,566.3,0.2460,0.000039,3159.6,565.4,0.0448,0.000003,3850.8,530.8,0.1428,0.000033,3850.8,532.3,0.0123,0.000003,8251.4,564.4,0.2515,0.000012,874.8,593.6,0.2518,0.000238,1566.0,383.7,0.1869,0.001478,990.0,556.3,0.0170,0.000070
3258.3,584.6,0.2425,0.000035,3258.3,582.6,0.0444,0.000006,3971.1,551.3,0.1394,0.000025,3971.1,552.0,0.0121,0.000002,8509.2,581.0,0.2484,0.000012,902.1,622.4,0.2459,0.000200,1614.9,435.2,0.1466,0.000843,1020.9,587.6,0.0161,0.000012
3357.0,602.3,0.2392,0.000033,3357.0,599.7,0.0436,0.000011,4091.4,572.8,0.1365,0.000023,4091.4,572.9,0.0118,0.000003,8767.1,597.4,0.2455,0.000012,929.4,651.7,0.2408,0.000174,1663.8,490.8,0.0880,0.001578,1051.8,618.4,0.0158,0.000007
3455.8,619.3,0.2361,0.000031,3455.8,615.9,0.0424,0.000015,4211.8,595.2,0.1338,0.000022,4211.8,594.1,0.0113,0.000005,9025.0,613.1,0.2423,0.000013,956.8,682.6,0.2359,0.000192,1712.8,535.8,0.0261,0.000658,1082.8,649.1,0.0153,0.000029
3554.5,636.6,0.2327,0.000035,3554.5,631.7,0.0408,0.000018,4332.1,615.8,0.1313,0.000020,4332.1,613.9,0.0105,0.000008,9282.8,628.7,0.2390,0.000012,984.1,705.2,0.2308,0.000150,1761.7,578.4,0.0160,0.000018,1113.7,681.7,0.0138,0.000066
3653.2,653.9,0.2293,0.000035,3653.2,647.9,0.0390,0.000016,4452.4,636.7,0.1290,0.000020,4452.4,633.5,0.0096,0.000007,9540.7,644.0,0.2360,0.000011,1011.4,708.8,0.2281,0.000068,1810.6,627.7,0.0154,0.000011,1144.6,697.0,0.0121,0.000026
3752.0,671.6,0.2263,0.000028,3752.0,664.8,0.0377,0.000013,4572.8,657.7,0.1266,0.000020,4572.8,653.3,0.0093,0.000000,9798.5,659.6,0.2334,0.000010,1038.8,713.7,0.2265,0.000056,1859.6,678.1,0.0140,0.000051,1175.6,698.7,0.0119,-0.000001
3850.7,689.1,0.2236,0.000026,3850.7,681.9,0.0366,0.000008,4693.1,679.4,0.1243,0.000019,4693.1,673.9,0.0092,0.000001,10056.4,675.3,0.2311,0.000009,1066.1,739.1,0.2246,0.000088,1908.5,698.7,0.0122,0.000005,1206.5,716.8,0.0119,0.000002
3949.4,705.6,0.2211,0.000023,3949.4,697.8,0.0359,0.000007,4813.4,699.9,0.1221,0.000018,4813.4,694.0,0.0091,0.000001,10314.2,690.8,0.2289,0.000009,1093.4,761.2,0.2220,0.000084,1957.4,718.3,0.0122,0.000001,1237.4,743.4,0.0118,0.000001
4048.2,740.9,0.2188,0.000047,4048.2,731.3,0.0354,0.000008,4933.8,726.6,0.1200,0.000028,4933.8,720.0,0.0091,0.000001,10572.1,705.5,0.2268,0.000007,1120.8,763.7,0.2203,0.000046,2006.4,747.9,0.0121,0.000001,1268.4,747.9,0.0118,0.000001
4114.0,758.7,0.2161,0.000031,4114.0,747.6,0.0349,0.000005,5014.0,758.8,0.1172,0.000027,5014.0,749.5,0.0090,0.000000,10744.0,757.4,0.2239,0.000023,1139.0,764.3,0.2196,0.000039,2039.0,749.3,0.0121,0.000000,1289.0,748.8,0.0118,0.000001