File: Verification/Pyrolysis/cable_23_insulation_mcc_exp.csv
Temperature (C),HRR (W/g)
99.931,-1.926
100.05,-4.6138
100.23,-4.9739
100.5,-2.8038
101.01,-0.15747
101.54,0.26319
102.23,0.62637
102.97,0.58933
103.81,0.57171
104.69,0.50588
105.66,0.4028
106.71,0.83338
107.86,0.59678
109.06,0.83224
110.26,1.1267
111.6,0.82096
112.97,0.93664
114.36,0.79806
115.87,1.1537
117.36,1.1518
118.95,1.1665
120.51,1.5842
122.22,1.7191
123.93,1.628
125.63,1.572
127.42,1.6021
129.15,1.9203
130.96,1.5129
132.88,1.492
134.72,1.5606
136.69,1.951
138.58,1.9148
140.54,2.0433
142.5,2.1601
144.45,1.9719
146.46,1.7609
148.53,1.8261
150.57,1.7062
152.63,1.6304
154.71,1.6832
156.79,1.7936
158.9,1.8254
161.03,1.8647
163.17,1.8961
165.36,2.0964
167.48,2.0976
169.63,2.1252
171.8,1.7959
173.95,1.6923
176.17,1.8163
178.35,1.8496
180.54,2.067
182.69,1.9522
184.9,2.1298
187.1,2.1415
189.31,2.2117
191.58,2.1994
193.79,2.3948
195.99,2.1076
198.22,2.3102
200.42,2.351
202.6,2.6363
204.85,2.6474
207.09,2.6269
209.29,2.6037
211.48,2.6698
213.69,2.6003
215.89,2.489
218.06,2.6028
220.23,2.6155
222.41,2.5639
224.58,2.7755
226.77,2.7565
228.94,2.9043
231.11,3.0751
233.28,3.2078
235.41,2.9179
237.57,3.0331
239.71,2.9067
241.88,2.7313
244.01,3.1865
246.19,3.1959
248.28,3.3313
250.42,3.2849
252.5,3.3336
254.62,3.083
256.73,3.1049
258.79,2.739
260.91,2.9745
263,2.9417
265.07,2.981
267.24,2.5925
269.27,2.4761
271.36,2.7054
273.43,2.8393
275.49,3.0148
277.51,3.1172
279.6,3.2949
281.63,3.4689
283.7,3.4542
285.73,3.6673
287.82,3.8429
289.82,4.168
291.87,4.3826
293.89,4.4764
295.92,5.0988
297.95,5.3142
299.97,5.9337
301.96,6.2063
303.99,5.9008
305.95,6.1224
307.91,6.6619
309.97,6.9574
311.92,6.8124
313.91,6.6168
315.9,6.8677
317.94,6.8478
319.91,7.33
321.89,7.5519
323.88,7.5804
325.91,7.5479
327.9,7.1255
329.9,6.1188
331.82,6.5077
333.84,8.2585
335.87,12.062
337.82,16.376
339.81,21.636
341.82,28.01
343.76,34.065
345.7,40.174
347.65,44.908
349.64,47.484
351.59,47.647
353.63,46.137
355.61,42.538
357.6,37.865
359.59,32.483
361.54,27.722
363.55,23.804
365.59,20.817
367.58,18.302
369.59,16.767
371.58,15.107
373.6,13.809
375.58,12.778
377.6,12.19
379.57,11.959
381.58,11.316
383.58,11.025
385.55,11.277
387.5,11.591
389.53,12.024
391.48,12.333
393.52,12.879
395.49,13.589
397.48,14.261
399.48,15.164
401.49,15.765
403.47,16.16
405.51,17.423
407.55,19.219
409.47,20.503
411.45,22.229
413.44,23.941
415.43,26.174
417.38,28.121
419.44,32.323
421.34,39.501
423.35,48.297
425.39,55.868
427.42,62.099
429.41,66.384
431.42,65.441
433.42,57.485
435.39,56.576
437.36,63.212
439.38,69.326
441.36,75.36
443.38,83.385
445.44,93.04
447.41,104.49
449.45,118.89
451.43,133.94
453.42,151.13
455.48,170.47
457.44,191.76
459.43,212.49
461.4,237.66
463.44,263.51
465.36,291.02
467.35,318.07
469.36,346.06
471.32,374.77
473.31,403.39
475.26,428.69
477.26,451.16
479.24,470.01
481.22,487.04
483.22,498.8
485.17,501.29
487.2,496.26
489.16,482.74
491.13,460.12
493.12,427.25
495.1,383.8
497.1,330.96
499.11,271.17
501.04,208.26
503.07,146.75
505.04,94.151
507.11,53.701
509.14,26.744
511.14,12.437
513.18,6.1658
515.19,3.8671
517.16,3.5253
519.18,3.2261
521.22,2.923
523.25,2.6334
525.21,2.408
527.21,2.4934
529.2,2.6938
531.2,2.1381
533.18,2.1011
535.13,2.1871
537.18,2.161
539.17,2.0916
541.15,2.2106
543.09,1.8459
545.07,1.9458
547.05,1.7036
549.07,1.6793
551.02,1.4373
553.04,1.1711
554.97,1.3087
556.97,1.047
558.96,0.90266
560.96,0.84782
562.94,0.8538
564.93,0.99864
566.92,1.241
568.88,1.0938
570.84,1.1376
572.81,0.7897
574.81,0.91399
576.78,1.2473
578.76,1.0234
580.77,0.80143
582.78,0.74748
584.74,0.43389
586.73,0.82854
588.7,0.76911
590.75,0.68459
592.69,0.48604
594.69,0.33923
596.67,0.15324
598.14,0