File: Verification/Pyrolysis/cable_701_jacket_mcc_exp.csv
Temperature (C),HRR (W/g)
100.14,0.283
100.2,-3.1234
100.31,-4.1671
100.48,-2.6901
100.85,-0.9463
101.32,-0.11292
101.87,0.46252
102.57,0.67289
103.23,0.67533
104.08,0.81428
104.96,1.0911
105.94,1.0355
106.96,0.9683
108.11,1.1714
109.3,1.3152
110.56,1.4728
111.91,1.6439
113.31,1.4751
114.7,1.6051
116.18,1.8654
117.77,1.6793
119.37,1.6406
120.97,1.5779
122.68,1.5833
124.4,1.5551
126.16,1.646
127.93,1.4923
129.72,1.4976
131.59,1.4936
133.44,1.5407
135.33,1.5398
137.2,1.4958
139.16,1.6063
141.1,1.4695
143.07,1.3666
145.03,1.3663
147.09,1.1832
149.1,1.249
151.15,1.2253
153.18,1.0954
155.26,1.0199
157.35,1.0777
159.42,1.0634
161.48,1.0553
163.69,0.98805
165.78,0.83882
167.93,1.0348
170.05,1.0047
172.24,1.3069
174.36,1.309
176.54,1.4657
178.68,1.4
180.88,1.3859
183.06,1.4296
185.24,1.4694
187.44,1.7366
189.6,1.8147
191.88,2.223
194.02,1.9652
196.24,2.2145
198.44,2.3205
200.7,2.2257
202.92,2.2701
205.16,2.5474
207.39,2.6096
209.61,2.6379
211.82,2.7797
214.01,3.1421
216.23,3.5663
218.41,3.9839
220.6,4.4355
222.79,4.8009
224.99,5.1997
227.15,5.7793
229.31,6.2887
231.51,6.9697
233.7,7.5493
235.86,8.2048
238.03,8.7969
240.22,9.7301
242.35,10.534
244.52,11.281
246.71,12.142
248.83,13.119
250.94,14.241
253.07,15.357
255.26,16.48
257.34,17.527
259.44,19.027
261.55,20.574
263.67,23.131
265.75,27.086
267.85,32.181
269.92,38.715
271.97,46.953
274.02,57.471
276.03,69.971
278.09,82.198
280.17,86.591
282.19,89.472
284.25,94.68
286.27,101.6
288.32,110.37
290.35,119.03
292.37,126.96
294.36,133.04
296.42,137.49
298.41,140.66
300.42,143.48
302.39,145.57
304.4,147.36
306.39,149.23
308.38,150.74
310.38,152.34
312.31,153.63
314.34,155.13
316.31,156.9
318.29,157.37
320.26,155.99
322.21,152.78
324.24,145.28
326.26,134.58
328.26,120.82
330.25,104.77
332.31,87.705
334.27,71.005
336.3,56.325
338.34,44.75
340.36,35.038
342.39,27.334
344.37,21.533
346.34,17.35
348.28,14.288
350.38,11.955
352.39,10.409
354.41,9.0208
356.44,7.8469
358.49,7.0445
360.53,6.555
362.5,6.0641
364.55,5.5826
366.58,5.4017
368.6,5.6731
370.59,5.5196
372.58,5.7431
374.58,5.8481
376.63,6.0045
378.6,6.0659
380.59,6.2941
382.58,6.6656
384.57,7.2193
386.58,7.838
388.62,8.3218
390.57,8.9956
392.55,9.8255
394.52,10.305
396.49,11.204
398.51,12.295
400.49,13.357
402.5,14.395
404.5,15.688
406.5,17.337
408.45,18.97
410.46,20.662
412.42,22.484
414.39,24.224
416.39,25.953
418.38,28.388
420.34,30.708
422.29,33.028
424.31,35.391
426.34,37.92
428.32,40.136
430.28,42.47
432.29,45.581
434.28,48.42
436.27,51.239
438.28,53.74
440.24,55.821
442.24,57.769
444.24,59.484
446.25,60.925
448.22,62.171
450.2,62.162
452.17,61.963
454.21,61.335
456.2,60.465
458.19,59.853
460.15,58.907
462.15,57.806
464.06,56.454
466.12,54.8
468.1,53.267
470.12,52.059
472.08,50.677
474.12,49.513
476.15,47.912
478.12,46.477
480.08,44.769
482.14,42.722
484.15,40.549
486.16,38.411
488.16,35.977
490.16,33.678
492.12,31.218
494.14,28.744
496.19,26.493
498.18,24.27
500.13,22.204
502.12,20.008
504.13,17.806
506.11,16.12
508.09,14.371
510.13,12.83
512.11,11.455
514.14,10.257
516.14,9.2392
518.1,8.3146
520.11,7.4534
522.14,6.7623
524.15,6.1003
526.11,5.4459
528.14,5.0068
530.15,4.5276
532.1,4.1394
534.13,3.6726
536.15,3.3641
538.11,3.1426
540.14,2.8918
542.09,2.4946
544.06,2.4246
546.03,2.206
548.03,1.9999
550,1.6781
552.02,1.5246
554.02,1.2737
556,1.2457
558.01,1.1893
560.02,1.1882
562.03,0.93609
564.07,0.75984
566.05,0.68539
568.06,0.42935
570.03,0.45247
572.01,0.46731
573.98,0.44561
575.98,0.33563
577.96,0.20258
579.95,0.11006
581.97,-0.057622
583.99,-0.17602
585.96,-0.22515
587.94,-0.11313
589.92,-0.011293
591.94,-0.17901
593.89,-0.11815
595.89,-0.19098
597.89,-0.12385
598.38,0