File: Verification/Pyrolysis/cable_23_jacket_mcc_exp.csv
Temperature (C),HRR (W/g)
99.824,-1.794
99.907,-4.4099
100.14,-4.2418
100.62,-1.1091
101.27,0.1551
102.07,0.38006
103.08,0.60939
104.08,0.55779
105.33,0.6124
106.66,0.88702
108.08,0.86638
109.6,1.126
111.23,1.2549
113.02,1.0922
114.78,1.1884
116.74,1.362
118.73,1.4286
120.74,1.3456
122.92,1.4246
125.06,1.538
127.33,1.6181
129.67,1.5162
131.98,1.7453
134.36,1.7197
136.77,1.9429
139.21,1.6297
141.69,1.8176
144.18,2.028
146.73,2.2836
149.26,2.263
151.86,2.58
154.48,2.5705
157.08,2.7189
159.72,2.7262
162.37,2.892
165.07,3.2128
167.75,3.4353
170.42,3.7489
173.13,3.951
175.83,3.9467
178.56,4.1988
181.28,4.5807
184,4.623
186.76,4.9291
189.49,5.15
192.23,5.5779
194.99,5.8224
197.79,6.0802
200.57,6.3132
203.33,6.5768
206.14,6.9245
208.86,7.1359
211.62,7.5778
214.41,8.0793
217.18,8.4544
219.9,8.7081
222.65,8.7765
225.35,8.8277
228.07,9.6712
230.8,9.8616
233.51,10.11
236.25,10.598
238.92,10.963
241.62,11.114
244.29,11.431
247.02,11.816
249.69,11.873
252.35,12.362
254.97,12.69
257.66,13.019
260.29,13.211
262.93,13.298
265.57,13.359
268.22,13.85
270.85,14.154
273.42,14.58
276.05,15.001
278.6,15.136
281.17,15.229
283.73,15.337
286.33,15.37
288.88,15.481
291.41,15.513
293.95,15.654
296.54,15.714
299.05,15.626
301.58,15.605
304.1,15.679
306.55,15.78
309.06,15.918
311.55,15.901
314.05,15.863
316.54,16.237
319.05,16.367
321.56,17.005
324.03,17.365
326.55,16.582
329.03,10.926
331.58,-5.839
334.12,-25.708
336.76,65.022
339.45,258.93
342.12,402.37
344.67,260.11
347.2,65.673
349.7,13.628
352.24,4.3898
354.6,5.013
356.99,6.6171
359.37,7.6199
361.81,7.7928
364.19,7.9042
366.57,7.7068
368.95,7.7474
371.38,7.6966
373.77,8.0313
376.13,8.1159
378.58,8.2932
380.98,8.851
383.4,9.3474
385.83,9.6589
388.24,10.416
390.63,10.909
393.11,11.778
395.57,12.493
398.02,13.413
400.48,14.275
402.98,15.61
405.47,16.793
407.97,17.94
410.44,18.989
412.93,20.289
415.48,21.54
417.97,22.663
420.42,24.182
422.93,25.825
425.51,27.159
427.94,28.715
430.5,30.018
433.02,30.96
435.51,31.883
438.05,32.453
440.54,32.67
443.04,32.88
445.57,32.53
448.1,31.806
450.56,30.774
453.1,29.357
455.6,27.797
458.07,25.714
460.57,23.724
463.13,21.617
465.58,19.319
468.11,16.693
470.59,14.965
473.13,13.424
475.61,12.094
478.06,10.935
480.58,9.9097
483.1,8.9106
485.66,8.2487
488.13,7.508
490.63,6.7653
493.14,6.1495
495.58,5.5031
498.05,5.0798
500.54,4.7423
503,4.3786
505.52,4.2379
508.03,3.9952
510.5,3.4179
513.01,3.2529
515.51,3.4069
518.03,2.9951
520.48,2.8651
523.06,2.7674
525.55,2.617
528.03,2.5269
530.53,2.5275
533.03,2.1557
535.49,2.0616
537.97,2.2152
540.46,1.8565
542.96,1.6987
545.39,1.4269
547.91,1.2747
550.39,1.1836
552.92,1.4582
555.39,1.4823
557.88,1.4017
560.39,1.2332
562.9,1.1909
565.44,1.1699
567.9,1.2555
570.41,1.2791
572.88,1.1516
575.37,1.3048
577.87,1.218
580.33,1.1127
582.89,1.1526
585.34,0.94082
587.81,0.94248
590.29,0.80202
592.74,0.61453
595.23,0.73978
597.71,0.8216
600.19,0.92361
602.71,0.6355
605.13,0.56499
607.62,0.33948
610.14,0.22976
612.55,0.39652
615.04,0.54097
617.52,0.68011
620.01,0.64365
622.45,0.99525
624.91,0.96577
627.36,0.80841
629.83,0.61761
632.33,0.67435
634.82,0.4597
637.26,0.49072
639.76,0.55132
642.23,0.42174
644.73,0.54772
647.17,0.61536
649.69,0.6225
652.14,0.498
654.62,0.27991
657.1,0.14945
659.55,0.53863
662.01,0.38085
664.53,0.31175
667,0.58099
669.49,0.52757
671.94,0.53365
674.42,0.65066
676.88,0.25651
679.43,0.16877
681.9,0.11705
684.36,0.14886
686.85,0.086486
689.32,-0.062415
691.82,0.076607
694.34,0.044599
696.81,0.12303
699.22,0.13898
701.68,0.14869
704.19,0.26857
706.66,0.31362
709.19,0.097382
711.66,0.14448
714.12,0.13147
716.61,0.11059
719.13,0.20162
721.66,0.023382
724.16,0.16512
726.65,0.013801
729.18,0.035044
731.61,-0.11775
734.13,-0.44557
736.61,-0.16799
739.18,0.019805
741.69,-0.16969
744.16,0.066411
746.64,-0.12344
748.1,-3.55E-15