File: Verification/Pyrolysis/cable_701_insulation_mcc_exp.csv
Temperature (C),HRR (W/g)
99.59,-2.425
99.45,-6.4925
99.33,-7.3564
99.3,-5.7048
99.511,-2.4226
99.715,-1.0192
100.1,-0.80106
100.56,-0.68521
101.22,-0.70396
101.89,-0.4089
102.69,-0.48302
103.58,-0.43385
104.5,0.025825
105.51,0.17777
106.67,0.23518
107.82,-0.073139
109.02,0.037489
110.36,0.29767
111.68,0.30318
113.11,0.28572
114.6,0.43441
116.06,0.14435
117.67,0.21376
119.26,-0.075501
120.92,0.24201
122.62,0.13484
124.35,-0.19979
126.11,-0.12616
127.94,0.17633
129.72,-0.088347
131.61,0.12318
133.5,0.25862
135.4,0.1458
137.34,0.11337
139.26,-0.01083
141.23,0.32519
143.22,0.083925
145.21,0.10347
147.26,0.024046
149.3,0.14293
151.32,-0.034029
153.35,0.076925
155.4,0.19551
157.51,0.205
159.6,0.089979
161.68,-0.16806
163.85,0.12744
166.02,0.39589
168.16,0.45483
170.32,0.3855
172.48,0.44414
174.67,0.40618
176.8,0.56739
178.97,0.42586
181.19,0.70826
183.34,0.74814
185.48,0.74315
187.7,0.79073
189.9,1.0976
192.13,1.211
194.35,1.5046
196.53,1.6878
198.73,1.6348
200.97,1.8808
203.17,2.2129
205.38,2.0475
207.62,2.2567
209.78,2.5504
212.03,2.8645
214.26,3.3929
216.42,3.6675
218.61,4.0545
220.76,4.6164
222.98,5.2029
225.16,5.6981
227.3,6.3662
229.51,7.19
231.67,7.5415
233.8,8.6808
235.99,9.5847
238.17,10.589
240.28,11.626
242.42,12.619
244.55,13.909
246.76,14.969
248.9,15.979
250.99,17.007
253.13,18.093
255.23,19.005
257.34,20.637
259.41,21.892
261.55,23.116
263.63,24.346
265.75,25.177
267.86,24.929
269.89,24.389
271.97,27.761
274.04,48.072
276.05,86.27
278.09,145.18
280.12,195.54
282.1,215.28
284.13,216.84
286.16,210.93
288.17,202.97
290.18,196.21
292.16,190.21
294.12,183.88
296.14,177.69
298.11,169.61
300.11,159.85
302.12,148.73
304.06,135.66
306.07,121.18
308.08,105.04
310.02,89.674
312.03,76.443
314.02,66.153
316.07,57.423
318.06,51.208
320.05,46.566
322.05,43.388
324.07,39.835
326.15,35.895
328.14,32.004
330.15,27.691
332.15,23.435
334.2,19.943
336.21,17.136
338.23,14.306
340.22,12.324
342.21,10.35
344.22,9.039
346.23,8.2374
348.21,7.1151
350.2,6.3358
352.19,5.9075
354.2,5.5106
356.2,5.2932
358.18,5.301
360.22,4.8378
362.14,4.7876
364.14,4.7671
366.23,4.665
368.23,4.6536
370.23,4.787
372.21,4.9997
374.22,5.349
376.22,5.4046
378.25,5.2275
380.23,5.1053
382.2,5.5803
384.23,6.0592
386.17,6.3368
388.15,6.8925
390.16,7.4258
392.1,7.8854
394.13,8.4474
396.1,9.2684
398.06,9.9605
400.04,10.703
402.07,11.298
404.05,12.206
406.08,12.983
408.05,14.342
410.03,15.54
412.01,16.786
414,18.122
415.96,19.808
417.96,21.386
419.93,23.304
421.91,25.27
423.88,27.331
425.93,29.843
427.92,32.234
429.91,35.178
431.85,38.108
433.87,40.941
435.84,44.043
437.77,47.145
439.75,50.261
441.73,52.972
443.71,56.375
445.74,59.176
447.69,62.241
449.64,63.828
451.65,65.025
453.61,65.553
455.55,65.689
457.54,64.853
459.53,63.993
461.51,62.91
463.48,60.802
465.44,58.509
467.38,56.421
469.36,54.092
471.38,51.725
473.38,49.261
475.33,46.763
477.32,44.114
479.32,41.526
481.31,38.596
483.33,36.155
485.35,34.031
487.34,31.471
489.34,29.144
491.29,26.708
493.31,24.581
495.31,22.41
497.29,20.256
499.25,18.465
501.23,16.771
503.21,15.144
505.2,13.537
507.2,12.378
509.21,11.048
511.18,10.382
513.17,9.4035
515.15,8.3593
517.2,7.678
519.22,7.2791
521.19,6.7931
523.24,6.2296
525.23,5.6333
527.26,5.3212
529.23,4.7482
531.21,4.167
533.23,3.6432
535.23,3.3376
537.21,3.3735
539.2,3.01
541.2,2.6076
543.18,2.5064
545.16,2.5562
547.16,2.3317
549.14,2.1526
551.15,1.8448
553.13,1.6486
555.08,1.389
557.07,1.4937
559.05,1.4834
561.1,1.29
563.07,1.4241
565.12,1.2057
567.07,0.91399
569.05,1.0538
571.06,0.73614
573.06,0.90357
575.04,0.86732
577.03,0.69008
579.01,0.015794
581.06,0.1475
583.06,-0.076175
585.07,0.022241
587.05,0.010065
589.03,-0.020093
590.98,-0.21584
593,-0.082675
594.92,-0.36582
596.91,-0.047174
598.42,0