File: Verification/Pyrolysis/cable_11_jacket_mcc_exp.csv
Temperature (C),HRR (W/g)
99.094,-1.542
99.15,-3.5621
99.272,-3.9305
99.501,-2.5501
99.93,-0.7146
100.41,-0.10216
101.03,-0.055473
101.72,0.12794
102.52,0.27799
103.38,0.29387
104.33,0.19504
105.34,0.218
106.42,0.21959
107.58,0.064349
108.79,0.46143
110.07,0.66201
111.41,0.4044
112.77,0.48528
114.25,0.73307
115.75,0.67321
117.29,0.41866
118.85,0.5566
120.49,0.81804
122.24,0.66419
123.92,0.89496
125.67,0.99316
127.47,0.74435
129.25,0.99011
131.08,0.9557
133,1.0896
134.93,1.3143
136.82,1.2268
138.8,1.2933
140.82,1.5582
142.74,1.3972
144.74,1.3435
146.77,1.7371
148.83,1.7231
150.89,1.7943
152.92,1.8298
155.04,1.8138
157.12,2.0045
159.24,2.3283
161.35,2.3724
163.55,2.5597
165.7,2.8361
167.79,2.8175
169.97,3.1753
172.21,3.3498
174.31,3.6151
176.53,3.709
178.75,3.8628
180.93,4.1415
183.15,4.4154
185.33,4.8531
187.53,5.3145
189.73,5.7088
191.95,5.9857
194.2,6.224
196.38,6.5527
198.61,6.7684
200.85,6.9779
203.04,7.3053
205.29,7.4886
207.48,7.6902
209.72,8.0206
212,8.4165
214.2,8.8707
216.36,8.8609
218.59,9.1235
220.72,9.4041
222.96,9.6698
225.17,9.9029
227.33,10.441
229.56,10.773
231.7,11.081
233.85,11.536
236.08,11.352
238.21,11.763
240.38,12.13
242.53,12.353
244.72,12.44
246.85,12.711
249.01,12.971
251.14,12.89
253.26,13.324
255.41,13.42
257.51,13.597
259.63,13.93
261.75,14.207
263.88,14.429
265.95,14.192
268.11,14.381
270.12,14.538
272.18,14.581
274.32,14.951
276.37,15.102
278.45,14.999
280.5,15.161
282.51,15.401
284.6,15.614
286.68,15.471
288.72,15.457
290.72,15.887
292.79,16.006
294.79,16.086
296.81,16.19
298.83,16.22
300.89,16.357
302.88,16.251
304.85,16.319
306.86,16.543
308.81,16.647
310.83,16.672
312.84,16.767
314.84,17.064
316.81,17.25
318.76,17.682
320.76,17.549
322.78,17.588
324.75,18.02
326.78,17.844
328.74,16.117
330.74,9.6609
332.77,-5.7054
334.78,-13.69
336.85,16.69
338.95,88.87
341.15,219.5
343.32,314.84
345.56,349.1
347.6,268.96
349.68,105.83
351.7,30.519
353.67,9.4046
355.63,4.9086
357.59,4.9917
359.48,6.2482
361.4,7.355
363.25,7.6362
365.18,7.9038
367.12,7.9693
368.96,7.6708
370.83,7.6067
372.74,7.7077
374.62,7.9223
376.55,8.1592
378.44,8.3795
380.32,8.5672
382.2,8.9658
384.1,9.1941
386,9.3163
387.92,9.7672
389.85,9.994
391.75,10.442
393.66,11.044
395.63,11.614
397.57,12.44
399.56,13.286
401.49,14.148
403.47,14.895
405.44,15.801
407.42,16.618
409.41,17.36
411.4,18.297
413.38,19.434
415.34,20.675
417.39,22.078
419.37,23.299
421.34,24.55
423.31,25.876
425.38,27.403
427.36,28.85
429.36,30.238
431.36,31.553
433.35,32.781
435.37,33.867
437.39,34.86
439.34,36.064
441.33,36.902
443.35,37.756
445.41,38.384
447.41,39.025
449.41,39.552
451.36,39.43
453.4,39.659
455.39,39.473
457.37,38.955
459.38,38.169
461.35,37.289
463.39,36.555
465.34,35.064
467.35,34.058
469.32,32.627
471.34,31.118
473.33,29.253
475.36,27.396
477.33,25.387
479.38,23.275
481.34,21.34
483.39,19.205
485.37,17.185
487.36,14.97
489.4,12.712
491.37,10.905
493.38,8.9205
495.36,7.2452
497.39,6.341
499.34,5.4551
501.31,5.067
503.32,4.4751
505.3,3.8757
507.29,3.7993
509.29,3.3825
511.31,3.0913
513.32,2.9614
515.35,2.4731
517.35,2.1284
519.34,1.7529
521.36,1.7289
523.38,1.5537
525.43,1.446
527.4,1.5229
529.39,1.2432
531.43,1.2619
533.39,1.1459
535.42,1.2485
537.41,1.1419
539.41,1.0132
541.39,0.98188
543.36,0.84481
545.38,0.82581
547.37,0.48422
549.38,0.57234
551.37,0.58877
553.37,0.74503
555.37,0.54324
557.3,0.56187
559.31,0.5391
561.35,0.44542
563.34,0.38606
565.34,0.17317
567.32,0.19899
569.29,0.20774
571.28,0.33931
573.29,0.61025
575.26,0.71022
577.24,0.66999
579.23,0.53933
581.32,0.36087
583.29,0.37972
585.28,0.24718
587.23,0.28443
589.28,0.23979
591.28,0.19706
593.25,0.10389
595.22,0.12677
597.23,0.1009
598.23,0