File: Verification/Pyrolysis/cable_11_insulation_mcc_exp.csv
Temperature (C),HRR (W/g)
99.935,-1.928
99.868,-7.0395
99.766,-8.6313
99.817,-7.8014
99.993,-3.9903
100.32,-2.1573
100.68,-1.8611
101.2,-1.7725
101.82,-1.3681
102.55,-1.2088
103.31,-1.4124
104.2,-1.3029
105.09,-1.1421
106.11,-0.87023
107.19,-0.68394
108.35,-0.52596
109.57,0.016346
110.86,-0.21572
112.24,-0.40174
113.63,0.13398
115.11,0.35795
116.6,0.47445
118.17,0.62434
119.75,0.6449
121.4,0.52794
123.09,0.51533
124.8,0.22206
126.55,0.2351
128.32,0.18253
130.1,0.5098
131.96,0.22525
133.84,0.044328
135.74,0.73306
137.68,0.52783
139.59,0.08928
141.55,0.55166
143.53,0.25856
145.51,0.23351
147.5,0.23713
149.57,0.29425
151.57,0.64561
153.66,0.65614
155.7,0.82587
157.77,0.52784
159.86,0.56639
161.97,0.52953
164.11,0.73978
166.28,0.78575
168.43,0.9858
170.51,0.82666
172.71,0.46773
174.83,0.46063
176.99,0.2207
179.11,0.43945
181.35,0.5289
183.49,0.29823
185.65,0.39037
187.89,0.13757
190.07,0.007148
192.28,-0.12889
194.52,0.45227
196.69,0.89713
198.89,1.1183
201.08,1.2595
203.31,0.83915
205.57,0.87086
207.76,1.0073
209.96,0.52646
212.15,0.42882
214.35,0.16398
216.57,0.2247
218.76,0.64297
220.94,0.74257
223.18,0.32179
225.28,0.47504
227.48,0.62425
229.67,0.47967
231.86,0.60602
234,0.73432
236.19,0.77878
238.36,0.45253
240.52,0.41547
242.7,0.79505
244.82,0.73201
247.03,0.75489
249.19,0.95701
251.27,0.92665
253.45,0.89622
255.54,1.0478
257.69,1.16
259.78,0.93647
261.84,1.0408
263.99,1.1969
266.14,1.2822
268.23,1.3458
270.31,1.1895
272.46,1.1346
274.49,1.6526
276.59,1.6889
278.65,2.094
280.71,2.0523
282.76,2.1876
284.78,2.2377
286.85,2.1447
288.9,2.47
290.96,2.5332
292.97,2.8684
295,2.8613
297.02,2.8993
299.04,3.2374
301.02,3.2884
303.07,3.6747
305.07,3.9792
307.04,4.2433
309.07,4.4833
311.06,4.72
313.04,4.9688
315.05,4.8321
317.07,5.3402
319.02,5.6137
321.07,5.3723
323.03,5.7045
325.04,5.6468
327.08,5.6094
329.09,6.1236
331.04,6.3613
333.01,6.0074
335,5.7342
337,6.3856
338.94,8.1884
340.95,10.866
342.94,14.393
344.92,18.942
346.85,22.894
348.78,26.917
350.76,30.623
352.74,34.789
354.73,37.525
356.74,38.699
358.7,37.848
360.67,35.324
362.65,32.181
364.69,28.947
366.67,25.202
368.65,21.908
370.63,18.878
372.63,16.438
374.59,15.016
376.6,13.188
378.6,11.968
380.59,11.388
382.57,11.198
384.54,10.455
386.55,10.199
388.55,10.511
390.5,10.937
392.52,10.568
394.5,10.857
396.53,11.591
398.48,12.425
400.48,12.442
402.52,13.681
404.53,14.497
406.61,15.438
408.61,16.095
410.57,17.584
412.61,19.296
414.57,21.091
416.55,23.483
418.55,25.999
420.52,30.111
422.51,35.872
424.5,41.75
426.49,47.481
428.49,52.372
430.49,57.241
432.44,62.994
434.44,68.513
436.46,71.686
438.41,69.256
440.43,68.216
442.44,74.363
444.48,82.181
446.52,90.781
448.55,103.14
450.54,116.07
452.57,131.05
454.57,146.98
456.58,164.5
458.58,186.91
460.57,207.8
462.6,233.6
464.57,261.22
466.55,290.4
468.55,320.3
470.52,352.87
472.51,382.96
474.47,413.15
476.44,446.7
478.41,481.29
480.42,508.28
482.41,527.51
484.38,542.77
486.4,551.36
488.36,547.37
490.32,535.59
492.33,519.18
494.34,492.85
496.32,454.78
498.34,404.85
500.29,345.21
502.27,278.38
504.22,209.02
506.31,143.07
508.28,86.372
510.3,43.432
512.34,18.047
514.38,5.7607
516.36,1.0446
518.4,0.45617
520.45,0.58663
522.42,0.57684
524.52,0.6962
526.5,0.67099
528.49,0.70885
530.48,0.34654
532.52,0.69307
534.52,0.62863
536.52,0.44701
538.44,0.46837
540.46,0.41238
542.43,0.34352
544.37,0.31632
546.39,0.12937
548.32,-0.19068
550.32,-0.18026
552.3,-0.076287
554.27,-0.53004
556.28,-0.49194
558.2,-0.18353
560.17,-0.28443
562.24,-0.19942
564.16,-0.043259
566.22,0.07986
568.11,-0.07417
570.04,0.18778
572.06,0.1119
574.07,-0.029918
576.09,-0.18373
578,-0.19544
580.06,-0.14914
582.07,0.20115
584,-0.039837
585.92,-0.40358
587.93,-0.44133
589.91,-0.0074747
591.92,-0.16616
593.85,0.063919
595.84,0.038626
597.81,-0.11427
598.3,0