File: Verification/Pyrolysis/tga_analysis_exact.csv
s,C,g/g,g/g,g/g,g/g,g/g,1/s,1/s,1/s,1/s,1/s,W/g,W/g
Time,Temp,Total Mass,component 1 Mass,water Mass,component 2 Mass,residue Mass,Total MLR,component 1 MLR,water MLR,component 2 MLR,residue MLR,MCC,DSC
 0.01, 20.0007, 1, 0.9, 0.0999997, 1.82818e-28, 0.0000000E+000, 3.05029e-05, 4.57044e-26, 3.05029e-05,-1.82818e-26, 0.0000000E+000, 4.11021e-22, 0.336692
 156, 32.9999, 0.993907, 0.9, 0.0939073, 6.14507e-23, 0.0000000E+000, 4.84847e-05, 4.43963e-24, 4.84847e-05,-1.77585e-24, 0.0000000E+000, 3.99257e-20, 0.236466
 312, 45.9998, 0.984639, 0.9, 0.0846387, 4.50799e-21, 0.0000000E+000, 7.08654e-05, 2.97143e-22, 7.08654e-05,-1.18857e-22, 0.0000000E+000, 2.67222e-18, 0.29052
 468, 58.9998, 0.971761, 0.9, 0.0717607, 2.35008e-19, 0.0000000E+000, 9.38161e-05, 1.43113e-20, 9.38161e-05,-5.72453e-21, 0.0000000E+000, 1.28702e-16, 0.343452
 624, 71.9998, 0.955717, 0.9, 0.0557173, 9.12098e-18, 0.0000000E+000, 0.000109984, 5.14798e-19, 0.000109984,-2.05919e-19, 0.0000000E+000, 4.62959e-15, 0.376508
 780, 84.9998, 0.938258, 0.9, 0.0382585, 2.72153e-16, 0.0000000E+000, 0.000110669, 1.42771e-17, 0.000110669,-5.71085e-18, 0.0000000E+000, 1.28394e-13, 0.368864
 936, 97.9998, 0.922229, 0.9, 0.0222287, 6.41736e-15, 0.0000000E+000, 9.17375e-05, 3.13733e-16, 9.17375e-05,-1.25493e-16, 0.0000000E+000, 2.82141e-12, 0.312546
 1092, 111, 0.910347, 0.9, 0.0103466, 1.22465e-13, 0.0000000E+000, 5.94734e-05, 5.59317e-15, 5.94734e-05,-2.23727e-15, 0.0000000E+000, 5.02995e-11, 0.225811
 1248, 124, 0.90361, 0.9, 0.00361049, 1.93094e-12, 0.0000000E+000, 2.82855e-05, 8.25752e-14, 2.82855e-05,-3.30301e-14, 0.0000000E+000, 7.426e-10, 0.145428
 1404, 137, 0.900873, 0.9, 0.000872735, 2.56139e-11, 0.0000000E+000, 9.1376e-06, 1.02783e-12, 9.1376e-06,-4.11133e-13, 0.0000000E+000, 9.24333e-09, 0.0973774
 1560, 150, 0.900133, 0.9, 0.000133196, 2.90418e-10, 3.90093e-36, 1.83088e-06, 1.09574e-11, 1.83087e-06,-4.38297e-12,-1.70163e-37, 9.85404e-08, 0.0794151
 1716, 163, 0.900012, 0.9, 1.15313e-05, 2.85418e-09, 2.88272e-33, 2.04808e-07, 1.01444e-10, 2.04747e-07,-4.05775e-11,-1.18429e-34, 9.12285e-07, 0.0754866
 1872, 176, 0.9, 0.9, 5.01171e-07, 2.46161e-08, 1.4583e-30, 1.18212e-08, 8.25643e-10, 1.13258e-08,-3.30257e-10,-5.65237e-32, 7.42503e-06, 0.0750272
 2028, 189, 0.9, 0.899999, 9.52843e-09, 1.88366e-07, 5.21369e-28, 3.85367e-09, 5.97217e-09, 2.7037e-10,-2.38887e-09,-1.90979e-29, 5.37078e-05, 0.0750068
 2184, 202, 0.899998, 0.899997, 6.79689e-11, 1.29144e-06, 1.3553e-25, 2.32618e-08, 3.87657e-08, 2.39165e-12,-1.55063e-08,-4.69915e-27, 0.000348621, 0.0750404
 2340, 215, 0.899988, 0.89998, 1.53544e-13, 8.00257e-06, 2.62746e-23, 1.3666e-07, 2.27767e-07, 6.62371e-15,-9.11068e-08,-8.636e-25, 0.00204831, 0.0752379
 2496, 228, 0.899932, 0.899887, 9.12469e-17, 4.517e-05, 3.88613e-21, 7.32401e-07, 1.22067e-06, 4.77511e-18,-4.88268e-07,-1.21254e-22, 0.0109775, 0.0762681
 2652, 241, 0.899649, 0.899415, 7.9895e-19, 0.000233842, 4.47514e-19, 3.60413e-06, 6.00689e-06, 0.0000000E+000,-2.40276e-06,-1.32724e-20, 0.0540201, 0.0811969
 2808, 254, 0.898325, 0.897209, 7.97866e-19, 0.00111654, 4.08479e-17, 1.63632e-05, 2.7272e-05, 0.0000000E+000,-1.09088e-05,-1.15272e-18, 0.245258, 0.102955
 2964, 267, 0.892605, 0.887675, 7.92643e-19, 0.0049299, 2.99798e-15, 6.84989e-05, 0.000114165, 0.0000000E+000,-4.56659e-05,-8.05122e-17, 1.02669, 0.19126
 3120, 280, 0.870015, 0.850025, 7.72112e-19, 0.0199899, 1.78005e-13, 0.000259338, 0.000432229, 0.0000000E+000,-0.000172892,-4.5356e-15, 3.88705, 0.512226
 3276, 292.999, 0.792511, 0.720851, 7.03636e-19, 0.0716596, 8.39674e-12, 0.000816315, 0.00136052, 0.0000000E+000,-0.00054421,-2.00167e-13, 12.2352, 1.44144
 3432, 305.999, 0.599693, 0.399488, 5.31932e-19, 0.200205, 2.88898e-10, 0.00158319, 0.00263865, 0.0000000E+000,-0.00105546,-6.15082e-12, 23.7294, 2.70049
 3588, 318.999, 0.392498, 0.0541636, 3.48508e-19, 0.338334, 5.94471e-09, 0.000711167, 0.00118528, 0.0000000E+000,-0.00047411,-1.0293e-10, 10.6592, 1.21565
 3744, 332, 0.360053, 8.83248e-05, 3.19408e-19, 0.359964, 6.80988e-08, 3.65615e-06, 6.0843e-06, 0.0000000E+000,-2.42717e-06,-9.82617e-10, 0.0547997, 0.0360428
 3900, 345, 0.359997, 2.63214e-13, 3.19408e-19, 0.359996, 5.95543e-07, 4.55564e-08, 5.44359e-14, 0.0000000E+000, 5.35957e-08,-8.03936e-09, 0.000682816, 0.0300576
 4056, 358, 0.359974, 3.19336e-19, 3.19408e-19, 0.359969, 4.66888e-06, 3.41753e-07, 0.0000000E+000, 0.0000000E+000, 4.02062e-07,-6.03093e-08, 0.00512232, 0.03042
 4212, 371, 0.359809, 3.19336e-19, 3.19408e-19, 0.359776, 3.3624e-05, 2.36238e-06, 0.0000000E+000, 0.0000000E+000, 2.77927e-06,-4.1689e-07, 0.0354082, 0.0328781
 4368, 384, 0.358732, 3.09813e-19, 3.18522e-19, 0.358509, 0.000223728, 1.50819e-05, 0.0000000E+000, 0.0000000E+000, 1.77435e-05,-2.66152e-06, 0.226054, 0.0482074
 4524, 397, 0.352228, 3.09813e-19, 3.14568e-19, 0.350856, 0.0013716, 8.79895e-05, 0.0000000E+000, 0.0000000E+000, 0.000103517,-1.55276e-05, 1.31882, 0.135269
 4680, 410, 0.31768, 2.61952e-19, 2.91398e-19, 0.310211, 0.0074683, 0.000433301, 0.0000000E+000, 0.0000000E+000, 0.000509766,-7.64649e-05, 6.49448, 0.543424
 4836, 422.999, 0.190525, 1.55018e-19, 2.08616e-19, 0.160618, 0.0299073, 0.00117196, 0.0000000E+000, 0.0000000E+000, 0.00137878,-0.000206817, 17.5658, 1.40152
 4992, 436, 0.0589895, 9.6636e-21, 1.22957e-19, 0.00586997, 0.0531195, 0.000210664, 0.0000000E+000, 0.0000000E+000, 0.000247841,-3.71761e-05, 3.15752, 0.251696
 5148, 449, 0.054, 9.6636e-21, 1.19723e-19, 8.90777e-10, 0.054, 1.48646e-10, 0.0000000E+000, 0.0000000E+000, 1.74878e-10,-2.62317e-11, 2.22797e-06, 0.0045168
 5304, 462, 0.054, 9.6636e-21, 1.19723e-19, 1.19574e-19, 0.054, 0.0000000E+000, 0.0000000E+000, 0.0000000E+000, 0.0000000E+000, 0.0000000E+000, 0.0000000E+000, 0.0044998
 5460, 475, 0.054, 9.6636e-21, 1.19723e-19, 1.19574e-19, 0.054, 0.0000000E+000, 0.0000000E+000, 0.0000000E+000, 0.0000000E+000, 0.0000000E+000, 0.0000000E+000, 0.0045001
 5616, 488, 0.054, 9.6636e-21, 1.19723e-19, 1.19574e-19, 0.054, 0.0000000E+000, 0.0000000E+000, 0.0000000E+000, 0.0000000E+000, 0.0000000E+000, 0.0000000E+000, 0.0045001
 5772, 501, 0.054, 9.6636e-21, 1.19723e-19, 1.19574e-19, 0.054, 0.0000000E+000, 0.0000000E+000, 0.0000000E+000, 0.0000000E+000, 0.0000000E+000, 0.0000000E+000, 0.0045001
 5928, 514, 0.054, 9.6636e-21, 1.19723e-19, 1.19574e-19, 0.054, 0.0000000E+000, 0.0000000E+000, 0.0000000E+000, 0.0000000E+000, 0.0000000E+000, 0.0000000E+000, 0.0045001
 6084, 527, 0.054, 9.6636e-21, 1.19723e-19, 1.19574e-19, 0.054, 0.0000000E+000, 0.0000000E+000, 0.0000000E+000, 0.0000000E+000, 0.0000000E+000, 0.0000000E+000, 0.0045001
 6240, 540, 0.054, 9.6636e-21, 1.19723e-19, 1.19574e-19, 0.054, 0.0000000E+000, 0.0000000E+000, 0.0000000E+000, 0.0000000E+000, 0.0000000E+000, 0.0000000E+000, 0.0044998
 6396, 553, 0.054, 9.6636e-21, 1.19723e-19, 1.19574e-19, 0.054, 0.0000000E+000, 0.0000000E+000, 0.0000000E+000, 0.0000000E+000, 0.0000000E+000, 0.0000000E+000, 0.0045001
 6552, 566, 0.054, 9.6636e-21, 1.19723e-19, 1.19574e-19, 0.054, 0.0000000E+000, 0.0000000E+000, 0.0000000E+000, 0.0000000E+000, 0.0000000E+000, 0.0000000E+000, 0.0044998
 6708, 579, 0.054, 9.6636e-21, 1.19723e-19, 1.19574e-19, 0.054, 0.0000000E+000, 0.0000000E+000, 0.0000000E+000, 0.0000000E+000, 0.0000000E+000, 0.0000000E+000, 0.0044998
 6864, 592, 0.054, 9.6636e-21, 1.19723e-19, 1.19574e-19, 0.054, 0.0000000E+000, 0.0000000E+000, 0.0000000E+000, 0.0000000E+000, 0.0000000E+000, 0.0000000E+000, 0.0045004
 7020, 605, 0.054, 9.6636e-21, 1.19723e-19, 1.19574e-19, 0.054, 0.0000000E+000, 0.0000000E+000, 0.0000000E+000, 0.0000000E+000, 0.0000000E+000, 0.0000000E+000, 0.0045001
 7176, 618, 0.054, 9.6636e-21, 1.19723e-19, 1.19574e-19, 0.054, 0.0000000E+000, 0.0000000E+000, 0.0000000E+000, 0.0000000E+000, 0.0000000E+000, 0.0000000E+000, 0.0045001
 7332, 631, 0.054, 9.6636e-21, 1.19723e-19, 1.19574e-19, 0.054, 0.0000000E+000, 0.0000000E+000, 0.0000000E+000, 0.0000000E+000, 0.0000000E+000, 0.0000000E+000, 0.0045004
 7488, 644, 0.054, 9.6636e-21, 1.19723e-19, 1.19574e-19, 0.054, 0.0000000E+000, 0.0000000E+000, 0.0000000E+000, 0.0000000E+000, 0.0000000E+000, 0.0000000E+000, 0.0044998
 7644, 657, 0.054, 9.6636e-21, 1.19723e-19, 1.19574e-19, 0.054, 0.0000000E+000, 0.0000000E+000, 0.0000000E+000, 0.0000000E+000, 0.0000000E+000, 0.0000000E+000, 0.0044998
 7800, 670, 0.054, 9.6636e-21, 1.19723e-19, 1.19574e-19, 0.054, 0.0000000E+000, 0.0000000E+000, 0.0000000E+000, 0.0000000E+000, 0.0000000E+000, 0.0000000E+000, 0.0045001
 7956, 683, 0.054, 9.6636e-21, 1.19723e-19, 1.19574e-19, 0.054, 0.0000000E+000, 0.0000000E+000, 0.0000000E+000, 0.0000000E+000, 0.0000000E+000, 0.0000000E+000, 0.0045001
 8112, 696, 0.054, 9.6636e-21, 1.19723e-19, 1.19574e-19, 0.054, 0.0000000E+000, 0.0000000E+000, 0.0000000E+000, 0.0000000E+000, 0.0000000E+000, 0.0000000E+000, 0.0045004
 8268, 709, 0.054, 9.6636e-21, 1.19723e-19, 1.19574e-19, 0.054, 0.0000000E+000, 0.0000000E+000, 0.0000000E+000, 0.0000000E+000, 0.0000000E+000, 0.0000000E+000, 0.0045004
 8424, 722, 0.054, 9.6636e-21, 1.19723e-19, 1.19574e-19, 0.054, 0.0000000E+000, 0.0000000E+000, 0.0000000E+000, 0.0000000E+000, 0.0000000E+000, 0.0000000E+000, 0.0045001
 8580, 735, 0.054, 9.6636e-21, 1.19723e-19, 1.19574e-19, 0.054, 0.0000000E+000, 0.0000000E+000, 0.0000000E+000, 0.0000000E+000, 0.0000000E+000, 0.0000000E+000, 0.0045001
 8736, 748, 0.054, 9.6636e-21, 1.19723e-19, 1.19574e-19, 0.054, 0.0000000E+000, 0.0000000E+000, 0.0000000E+000, 0.0000000E+000, 0.0000000E+000, 0.0000000E+000, 0.0045001
 8892, 761, 0.054, 9.6636e-21, 1.19723e-19, 1.19574e-19, 0.054, 0.0000000E+000, 0.0000000E+000, 0.0000000E+000, 0.0000000E+000, 0.0000000E+000, 0.0000000E+000, 0.00450071
 9048, 774, 0.054, 9.6636e-21, 1.19723e-19, 1.19574e-19, 0.054, 0.0000000E+000, 0.0000000E+000, 0.0000000E+000, 0.0000000E+000, 0.0000000E+000, 0.0000000E+000, 0.0045001
 9204, 787, 0.054, 9.6636e-21, 1.19723e-19, 1.19574e-19, 0.054, 0.0000000E+000, 0.0000000E+000, 0.0000000E+000, 0.0000000E+000, 0.0000000E+000, 0.0000000E+000, 0.0044995
 9360, 800, 0.054, 9.6636e-21, 1.19723e-19, 1.19574e-19, 0.054, 0.0000000E+000, 0.0000000E+000, 0.0000000E+000, 0.0000000E+000, 0.0000000E+000, 0.0000000E+000, 0.0045001